#LAM	TRANSMISSION
10.251	0.0001
10.257	0.0001
10.263	0.0001
10.268	0.0001
10.274	0.0001
10.28	0.0001
10.286	0.0001
10.292	0.0001
10.297	0.0001
10.303	0.0001
10.309	0.0001
10.315	0.0001
10.321	0.0001
10.326	0.0002
10.332	0.0002
10.338	0.0002
10.344	0.0002
10.35	0.0002
10.355	0.0002
10.361	0.0002
10.367	0.0002
10.373	0.0002
10.379	0.0002
10.384	0.0002
10.39	0.0003
10.396	0.0003
10.402	0.0003
10.408	0.0003
10.413	0.0003
10.419	0.0003
10.425	0.0003
10.431	0.0004
10.437	0.0004
10.442	0.0004
10.448	0.0004
10.454	0.0004
10.46	0.0004
10.466	0.0004
10.471	0.0005
10.477	0.0005
10.483	0.0005
10.489	0.0006
10.495	0.0006
10.5	0.0006
10.506	0.0007
10.512	0.0007
10.518	0.0008
10.524	0.0008
10.529	0.0009
10.535	0.001
10.541	0.001
10.547	0.0011
10.553	0.0012
10.558	0.0012
10.564	0.0013
10.57	0.0014
10.576	0.0015
10.582	0.0017
10.587	0.0018
10.593	0.0019
10.599	0.0021
10.605	0.0022
10.611	0.0024
10.616	0.0026
10.622	0.0028
10.628	0.003
10.634	0.0033
10.64	0.0035
10.645	0.0038
10.651	0.0041
10.657	0.0044
10.663	0.0048
10.669	0.0052
10.674	0.0056
10.68	0.0061
10.686	0.0066
10.692	0.0072
10.698	0.0077
10.703	0.0084
10.709	0.0091
10.715	0.0098
10.721	0.0106
10.727	0.0115
10.732	0.0124
10.738	0.0134
10.744	0.0145
10.75	0.0157
10.756	0.0168
10.761	0.0181
10.767	0.0196
10.773	0.0211
10.779	0.0226
10.785	0.0244
10.79	0.0263
10.796	0.0281
10.802	0.0302
10.808	0.0326
10.814	0.035
10.819	0.0375
10.825	0.0405
10.831	0.0436
10.837	0.0467
10.843	0.0501
10.848	0.054
10.854	0.0579
10.86	0.0618
10.866	0.0667
10.872	0.0715
10.877	0.0763
10.883	0.0818
10.889	0.0877
10.895	0.0936
10.901	0.0996
10.906	0.1067
10.912	0.1138
10.918	0.1208
10.924	0.1287
10.93	0.1369
10.935	0.1451
10.941	0.1536
10.947	0.1627
10.953	0.1718
10.959	0.1809
10.964	0.1901
10.97	0.1993
10.976	0.2085
10.982	0.2175
10.988	0.2262
10.993	0.2349
10.999	0.2435
11.005	0.2514
11.011	0.2591
11.017	0.2668
11.022	0.274
11.028	0.2804
11.034	0.2868
11.04	0.2932
11.046	0.298
11.051	0.3028
11.057	0.3075
11.063	0.3115
11.069	0.3149
11.075	0.3182
11.08	0.3214
11.086	0.3238
11.092	0.3262
11.098	0.3287
11.104	0.3306
11.109	0.3324
11.115	0.3341
11.121	0.3358
11.127	0.337
11.133	0.3383
11.138	0.3395
11.144	0.3405
11.15	0.3414
11.156	0.3422
11.162	0.343
11.167	0.3435
11.173	0.344
11.179	0.3445
11.185	0.3448
11.191	0.345
11.196	0.3452
11.202	0.3454
11.208	0.3453
11.214	0.3453
11.22	0.3453
11.225	0.3451
11.231	0.3449
11.237	0.3447
11.243	0.3444
11.249	0.344
11.254	0.3437
11.26	0.3434
11.266	0.343
11.272	0.3426
11.278	0.3423
11.283	0.3419
11.289	0.3416
11.295	0.3412
11.301	0.3409
11.307	0.3406
11.312	0.3403
11.318	0.3401
11.324	0.3399
11.33	0.3397
11.336	0.3396
11.341	0.3395
11.347	0.3396
11.353	0.3396
11.359	0.3397
11.365	0.3399
11.37	0.3401
11.376	0.3404
11.382	0.3407
11.388	0.341
11.394	0.3413
11.399	0.3417
11.405	0.3421
11.411	0.3425
11.417	0.3429
11.423	0.3433
11.428	0.3437
11.434	0.3442
11.44	0.3446
11.446	0.345
11.452	0.3453
11.457	0.3457
11.463	0.346
11.469	0.3461
11.475	0.3463
11.481	0.3465
11.486	0.3464
11.492	0.3462
11.498	0.3461
11.504	0.3458
11.51	0.3454
11.515	0.3451
11.521	0.3444
11.527	0.3427
11.533	0.341
11.539	0.3394
11.544	0.3365
11.55	0.3334
11.556	0.3302
11.562	0.3266
11.568	0.3217
11.573	0.3169
11.579	0.3121
11.585	0.3056
11.591	0.2987
11.597	0.2919
11.602	0.2841
11.608	0.2749
11.614	0.2657
11.62	0.2565
11.626	0.2465
11.631	0.2364
11.637	0.2264
11.643	0.2161
11.649	0.2057
11.655	0.1952
11.66	0.1848
11.666	0.1747
11.672	0.1645
11.678	0.1544
11.684	0.1451
11.689	0.1364
11.695	0.1277
11.701	0.1192
11.707	0.1117
11.713	0.1042
11.718	0.0968
11.724	0.0902
11.73	0.0839
11.736	0.0777
11.742	0.0718
11.747	0.0671
11.753	0.0624
11.759	0.0577
11.765	0.0539
11.771	0.0503
11.776	0.0466
11.782	0.0433
11.788	0.0404
11.794	0.0374
11.8	0.0345
11.805	0.0322
11.811	0.0299
11.817	0.0276
11.823	0.0256
11.829	0.024
11.834	0.0224
11.84	0.0208
11.846	0.0194
11.852	0.0181
11.858	0.0168
11.863	0.0156
11.869	0.0146
11.875	0.0135
11.881	0.0125
11.887	0.0117
11.892	0.0109
11.898	0.0101
11.904	0.0094
11.91	0.0088
11.916	0.0082
11.921	0.0076
11.927	0.0071
11.933	0.0066
11.939	0.0061
11.945	0.0057
11.95	0.0053
11.956	0.0049
11.962	0.0045
11.968	0.0042
11.974	0.004
11.979	0.0037
11.985	0.0034
11.991	0.0032
11.997	0.0029
12.003	0.0027
12.008	0.0025
12.014	0.0023
12.02	0.0021
12.026	0.002
12.032	0.0018
12.037	0.0017
12.043	0.0016
12.049	0.0015
12.055	0.0013
12.061	0.0012
12.066	0.0011
12.072	0.001
12.078	0.0009
12.084	0.0009
12.09	0.0008
12.095	0.0007
12.101	0.0006
12.107	0.0006
12.113	0.0005
12.119	0.0005
12.124	0.0004
12.13	0.0004
12.136	0.0003
12.142	0.0003
12.148	0.0003
12.153	0.0002
12.159	0.0002
12.165	0.0002
12.171	0.0002
12.177	0.0001
12.182	0.0001
12.188	0.0001
12.194	0.0001
12.2	0.0001
12.206	0.0001
12.211	0.0001
12.217	0.0001
12.223	0.0001
12.229	0.0001
