# NIC1 TRANSMISSION PROFILE FOR f095n
# BASED ON nic1_f095n_004.tab FROM ftp://ftp.stsci.edu/cdbs/cdbs2/comp/nicmos
0.900600   0.00283575
0.900800   0.00168845
0.901000   0.00316891
0.901200   0.000372666
0.901400   0.00000
0.901600   0.00000
0.901800   0.00000
0.902000   0.000369429
0.902200   0.00162404
0.902400   0.00000
0.902600   0.00270693
0.902800   0.00000
0.903000   0.00284363
0.903200   0.00000
0.903400   0.00000
0.903600   0.00000
0.903800   0.00000
0.904000   0.00000
0.904200   0.00158063
0.904400   0.00000
0.904600   0.000359801
0.904800   0.00000
0.905000   0.00000
0.905200   0.00000
0.905400   0.00000
0.905600   0.000845595
0.905800   0.00000
0.906000   0.00000
0.906200   0.00000
0.906400   0.00000
0.906600   0.00000
0.906800   0.00000
0.907000   0.000985448
0.907200   0.000484134
0.907400   0.00000
0.907600   0.00000
0.907800   0.00227044
0.908000   0.000317887
0.908200   0.00000
0.908400   0.00000
0.908600   0.000798534
0.908800   0.00000
0.909000   0.00000
0.909200   0.00000
0.909400   0.00171891
0.909600   0.000469858
0.909800   0.00000
0.910000   0.00000
0.910200   0.00000
0.910400   2.48997e-06
0.910600   0.00000
0.910800   0.00122000
0.911000   0.00000
0.911200   0.00000
0.911400   0.00000
0.911600   0.00000
0.911800   0.00000
0.912000   0.00223301
0.912200   0.00000
0.912400   0.00000
0.912600   0.00000
0.912800   3.65196e-06
0.913000   0.00161051
0.913200   0.00000
0.913400   0.00000
0.913600   0.000865598
0.913800   0.00000
0.914000   0.000144335
0.914200   0.00114854
0.914400   0.00000
0.914600   0.00000
0.914800   0.00113095
0.915000   0.00000
0.915200   6.63993e-07
0.915400   0.00000
0.915600   0.00000
0.915800   0.00000
0.916000   0.00110737
0.916200   0.00000
0.916400   0.00191222
0.916600   0.000137613
0.916800   0.00163209
0.917000   0.00000
0.917200   0.00175070
0.917400   0.00000
0.917600   0.00000
0.917800   0.00000
0.918000   0.00000
0.918200   0.00000
0.918400   0.000130392
0.918600   0.00000
0.918800   0.00169907
0.919000   0.000392586
0.919200   0.00246225
0.919400   0.000656938
0.919600   0.00000
0.919800   0.00000
0.920000   0.00000
0.920200   0.00000
0.920400   0.00000
0.920600   0.000254060
0.920800   0.000508950
0.921000   0.000121843
0.921200   0.00000
0.921400   0.00000
0.921600   0.00000
0.921800   0.00000
0.922000   0.00245213
0.922200   0.000120432
0.922400   0.00000
0.922600   0.00000
0.922800   0.000120432
0.923000   0.00000
0.923200   0.000362706
0.923400   0.00000
0.923600   0.000240614
0.923800   0.000597344
0.924000   0.00000
0.924200   0.00000
0.924400   0.000828663
0.924600   0.00000
0.924800   0.00000
0.925000   0.00000
0.925200   0.00000
0.925400   0.00000
0.925600   0.00000
0.925800   0.000116033
0.926000   0.00286114
0.926200   0.000570121
0.926400   0.00000
0.926600   0.00000
0.926800   4.97995e-07
0.927000   0.00000
0.927200   0.00000
0.927400   0.00000
0.927600   0.00000
0.927800   0.000111966
0.928000   0.00111891
0.928200   0.000226920
0.928400   0.00000
0.928600   0.00000
0.928800   0.000219533
0.929000   0.000435496
0.929200   0.00000
0.929400   0.000649634
0.929600   0.00000
0.929800   0.000755458
0.930000   0.00000
0.930200   0.00119452
0.930400   0.000225509
0.930600   0.00000
0.930800   0.000110887
0.931000   0.000849662
0.931200   0.00000
0.931400   0.00149100
0.931600   0.00000
0.931800   0.000419643
0.932000   0.000733048
0.932200   0.00000
0.932400   0.00000
0.932600   0.00154719
0.932800   2.48997e-07
0.933000   0.00000
0.933200   0.00000
0.933400   0.00132940
0.933600   0.000509697
0.933800   0.00000
0.934000   0.000827252
0.934200   0.00000
0.934400   0.000707401
0.934600   0.000910666
0.934800   0.00000
0.935000   0.00000
0.935200   0.00000
0.935400   0.00000
0.935600   0.00000
0.935800   0.00000
0.936000   0.00000
0.936200   0.00148203
0.936400   0.00000
0.936600   0.00000
0.936800   0.00255015
0.937000   0.00127329
0.937200   0.00000
0.937400   0.00000
0.937600   0.00000
0.937800   0.000889169
0.938000   0.00000
0.938200   0.00000
0.938400   9.56980e-05
0.938600   0.00000
0.938800   0.00143057
0.939000   0.000394495
0.939200   1.47738e-05
0.939400   0.00000
0.939600   9.53660e-05
0.939800   0.00262916
0.940000   0.000937309
0.940200   0.00000
0.940400   0.00000
0.940600   0.000283442
0.940800   0.00000
0.941000   0.00102429
0.941200   0.000833975
0.941400   0.00000
0.941600   0.00166214
0.941800   0.00366250
0.942000   0.000179195
0.942200   0.00000
0.942400   0.00139505
0.942600   0.00128532
0.942800   0.00174041
0.943000   0.00164513
0.943200   0.00136741
0.943400   0.00118498
0.943600   0.00263257
0.943800   0.00389390
0.944000   0.00416797
0.944200   0.00371703
0.944400   0.00314243
0.944600   0.00404961
0.944800   0.00545561
0.945000   0.00674716
0.945200   0.00595859
0.945400   0.0101674
0.945600   0.0115641
0.945800   0.0113795
0.946000   0.0133185
0.946200   0.0167213
0.946400   0.0201986
0.946600   0.0239000
0.946800   0.0276048
0.947000   0.0354625
0.947200   0.0417384
0.947400   0.0526603
0.947600   0.0636075
0.947800   0.0799302
0.948000   0.0970646
0.948200   0.121099
0.948400   0.150081
0.948600   0.182959
0.948800   0.225521
0.949000   0.267103
0.949200   0.323527
0.949400   0.367486
0.949600   0.422685
0.949800   0.461662
0.950000   0.501020
0.950200   0.525203
0.950400   0.542913
0.950600   0.550110
0.950800   0.550380
0.951000   0.544194
0.951200   0.535244
0.951400   0.522961
0.951600   0.513044
0.951800   0.501911
0.952000   0.492717
0.952200   0.483415
0.952400   0.477476
0.952600   0.473987
0.952800   0.470652
0.953000   0.469352
0.953200   0.466924
0.953400   0.468293
0.953600   0.469903
0.953800   0.473277
0.954000   0.476653
0.954200   0.479419
0.954400   0.483737
0.954600   0.488455
0.954800   0.495302
0.955000   0.501060
0.955200   0.509967
0.955400   0.516793
0.955600   0.524774
0.955800   0.532874
0.956000   0.538135
0.956200   0.542313
0.956400   0.544429
0.956600   0.541437
0.956800   0.534369
0.957000   0.519023
0.957200   0.499090
0.957400   0.467934
0.957600   0.432623
0.957800   0.390097
0.958000   0.346588
0.958200   0.302532
0.958400   0.259688
0.958600   0.220772
0.958800   0.182807
0.959000   0.154593
0.959200   0.126613
0.959400   0.105380
0.959600   0.0867985
0.959800   0.0734989
0.960000   0.0596124
0.960200   0.0480373
0.960400   0.0400749
0.960600   0.0351378
0.960800   0.0283051
0.961000   0.0237473
0.961200   0.0197137
0.961400   0.0173964
0.961600   0.0144666
0.961800   0.0128439
0.962000   0.0110905
0.962200   0.00965271
0.962400   0.00828862
0.962600   0.00803406
0.962800   0.00672351
0.963000   0.00549728
0.963200   0.00528928
0.963400   0.00470904
0.963600   0.00305470
0.963800   0.00426159
0.964000   0.00179444
0.964200   0.00225633
0.964400   0.00204676
0.964600   0.00168480
0.964800   0.00237411
0.965000   0.00174597
0.965200   0.00176099
0.965400   0.00106496
0.965600   0.000696528
0.965800   0.00103799
0.966000   0.000896390
0.966200   0.000415327
0.966400   0.000549454
0.966600   0.000617430
0.966800   0.00149622
0.967000   0.000138193
0.967200   0.00108389
0.967400   0.000272569
0.967600   0.000561987
0.967800   0.000809822
0.968000   0.000608134
0.968200   0.000895975
0.968400   0.00000
0.968600   0.000269747
0.968800   6.73953e-05
0.969000   0.000821940
0.969200   0.000796625
0.969400   0.00000
0.969600   0.000658930
0.969800   0.00000
0.970000   0.00000
0.970200   0.00000
0.970400   0.000808992
0.970600   0.000130558
0.970800   0.000391590
0.971000   0.000780855
0.971200   6.46563e-05
0.971400   0.00000
0.971600   0.00000
0.971800   0.00000
0.972000   0.00000
0.972200   0.00000
0.972400   0.00000
0.972600   0.00137770
0.972800   0.000862610
0.973000   0.00000
0.973200   0.000192890
0.973400   0.00000
0.973600   0.00000
0.973800   0.000321040
0.974000   0.000703417
0.974200   0.00000
0.974400   0.000255305
0.974600   0.000320294
0.974800   0.000470854
0.975000   2.33227e-05
0.975200   0.00000
0.975400   6.22493e-05
0.975600   0.00000
0.975800   0.000572030
0.976000   0.000190317
0.976200   0.00000
0.976400   2.44847e-05
0.976600   0.000189487
0.976800   0.00000
0.977000   0.00000
0.977200   0.000127321
0.977400   0.000902781
0.977600   0.00000
0.977800   0.00000
0.978000   0.000939965
0.978200   0.000188325
0.978400   0.00000
0.978600   0.00000
0.978800   0.00000
0.979000   0.00000
0.979200   0.000456246
0.979400   0.00000
0.979600   0.00000
0.979800   0.00000
0.980000   0.000890829
0.980200   0.00000
0.980400   0.00000
0.980600   0.000921041
0.980800   0.00000
0.981000   0.00000
0.981200   0.000917389
0.981400   0.00000
0.981600   0.000427777
0.981800   0.000330087
0.982000   2.58957e-05
0.982200   0.00000
0.982400   0.000570785
0.982600   1.65998e-06
0.982800   0.00000
0.983000   0.00000
0.983200   0.000603486
0.983400   0.000301453
0.983600   0.00000
0.983800   0.00000
0.984000   0.00000
0.984200   7.46992e-07
0.984400   8.64851e-05
0.984600   0.000179444
0.984800   0.000561489
0.985000   0.00000
0.985200   0.000297635
0.985400   0.000557837
0.985600   0.00000
0.985800   0.00000
0.986000   0.000791313
0.986200   0.000320377
0.986400   0.00000
0.986600   0.00000
0.986800   0.000817126
0.987000   0.000176539
0.987200   0.000233227
0.987400   0.00000
0.987600   0.00000
0.987800   0.000463965
0.988000   0.00000
0.988200   0.00000
0.988400   0.00000
0.988600   0.00000
0.988800   0.00000
0.989000   0.00000
0.989200   0.00000
0.989400   0.00000
0.989600   0.000852152
0.989800   0.00000
0.990000   0.00000
0.990200   0.00000
0.990400   0.00000
0.990600   0.000815217
0.990800   0.00000
0.991000   0.000449855
0.991200   0.000642247
0.991400   0.00000
0.991600   0.00000
0.991800   0.00000
0.992000   0.00000
0.992200   0.00000
0.992400   0.000111385
0.992600   1.65998e-07
0.992800   0.00000
0.993000   0.000303694
0.993200   0.000330336
0.993400   0.00000
0.993600   0.000219450
0.993800   0.00000
0.994000   0.00000
0.994200   0.00000
0.994400   0.00000
0.994600   0.00000
0.994800   0.00000
0.995000   0.00000
0.995200   0.00000
0.995400   0.00000
0.995600   0.00000
0.995800   0.00120647
0.996000   0.000403127
0.996200   0.000374658
0.996400   0.00000
0.996600   0.00000
0.996800   0.00000
0.997000   0.00000
0.997200   0.000847089
0.997400   0.00000
0.997600   0.00000
0.997800   0.00000
0.998000   0.000396570
0.998200   0.000104413
0.998400   0.00000
0.998600   0.00000
0.998800   0.000236796
0.999000   0.000987772
0.999200   0.00000
0.999400   0.00000
0.999600   0.00000
0.999800   0.00000
1.00000   0.000413086
