# NIC1 TRANSMISSION PROFILE FOR f110m
# BASED ON nic1_f110m_003.tab FROM ftp://ftp.stsci.edu/cdbs/cdbs2/comp/nicmos
0.901000   0.000556329
0.901500   0.00000
0.902000   0.00000
0.902500   0.000308430
0.903000   0.00000
0.903500   0.00000
0.904000   0.000243424
0.904500   0.00000
0.905000   0.00000
0.905500   0.00000
0.906000   0.00000
0.906500   0.00000
0.907000   0.00000
0.907500   0.000129848
0.908000   3.22399e-08
0.908500   7.15954e-05
0.909000   0.00000
0.909500   0.00000
0.910000   0.00000
0.910500   0.000268889
0.911000   2.42448e-05
0.911500   0.000143760
0.912000   0.000710584
0.912500   0.00000
0.913000   0.000348621
0.913500   6.89919e-05
0.914000   0.000226990
0.914500   4.50725e-05
0.915000   0.000245540
0.915500   0.00000
0.917000   0.000408338
0.917500   0.00000
0.918000   0.000170527
0.918500   0.000313392
0.919000   4.36081e-05
0.919500   0.000576668
0.920000   8.13584e-08
0.920500   0.00000
0.921000   0.000379211
0.921500   0.000237485
0.922000   0.000454712
0.922500   0.000315020
0.923000   0.000115448
0.923500   0.00000
0.924000   1.91192e-05
0.924500   0.000243750
0.925000   0.000377177
0.925500   0.000239600
0.926000   0.000334708
0.926500   0.000289717
0.927000   0.000419240
0.927500   0.000213647
0.928000   0.000335359
0.928500   0.000280198
0.929000   0.000138960
0.929500   8.62399e-05
0.930000   0.000503852
0.930500   0.000169876
0.931000   0.000269703
0.931500   0.000468543
0.932000   0.000523297
0.932500   0.000305582
0.933000   0.000409314
0.933500   0.000577807
0.934000   0.000274585
0.934500   0.000176873
0.935000   0.000742721
0.935500   0.000443647
0.936000   0.000236346
0.936500   0.000578458
0.937000   0.000709282
0.937500   0.000494008
0.938000   0.000582445
0.938500   0.000482943
0.939000   0.000604493
0.939500   0.00118319
0.940000   0.000786166
0.940500   0.000637280
0.941000   0.000618812
0.941500   0.000806343
0.942000   0.000875823
0.942500   0.000927160
0.943000   0.000909587
0.943500   0.000976382
0.944000   0.00114235
0.944500   0.00141677
0.945000   0.00128196
0.945500   0.00107718
0.946000   0.00118230
0.946500   0.00139481
0.947000   0.00140026
0.947500   0.00139188
0.948000   0.00154719
0.948500   0.00149691
0.949000   0.00170145
0.949500   0.00155915
0.950000   0.00161561
0.950500   0.00187051
0.951000   0.00185660
0.951500   0.00198815
0.952000   0.00237322
0.952500   0.00215730
0.953000   0.00225647
0.953500   0.00207871
0.954000   0.00246817
0.954500   0.00253228
0.955000   0.00247500
0.955500   0.00254603
0.956000   0.00288635
0.956500   0.00290490
0.957000   0.00304516
0.957500   0.00321854
0.958000   0.00362720
0.958500   0.00354731
0.959000   0.00359742
0.959500   0.00393994
0.960000   0.00407972
0.960500   0.00420216
0.961000   0.00446609
0.961500   0.00461001
0.962000   0.00477801
0.962500   0.00510255
0.963000   0.00539886
0.963500   0.00560234
0.964000   0.00586220
0.964500   0.00652372
0.965000   0.00668017
0.965500   0.00698665
0.966000   0.00736057
0.966500   0.00775850
0.967000   0.00811656
0.967500   0.00850626
0.968000   0.00904616
0.968500   0.00970972
0.969000   0.0101892
0.969500   0.0108247
0.970000   0.0113813
0.970500   0.0120864
0.971000   0.0128187
0.971500   0.0135658
0.972000   0.0144775
0.972500   0.0154286
0.973000   0.0162598
0.973500   0.0173152
0.974000   0.0185178
0.974500   0.0196657
0.975000   0.0208724
0.975500   0.0220503
0.976000   0.0234854
0.976500   0.0250603
0.977000   0.0267545
0.977500   0.0283994
0.978000   0.0304482
0.978500   0.0322642
0.979000   0.0344056
0.979500   0.0367409
0.980000   0.0391338
0.980500   0.0418556
0.981000   0.0445605
0.981500   0.0473332
0.982000   0.0503595
0.982500   0.0538054
0.983000   0.0572607
0.983500   0.0612680
0.984000   0.0653540
0.984500   0.0693617
0.985000   0.0736986
0.985500   0.0784209
0.986000   0.0833700
0.986500   0.0887241
0.987000   0.0941924
0.987500   0.0997900
0.988000   0.105725
0.988500   0.111834
0.989000   0.118420
0.989500   0.125455
0.990000   0.132515
0.990500   0.139788
0.991000   0.147377
0.991500   0.155267
0.992000   0.163092
0.992500   0.171993
0.993000   0.181141
0.993500   0.190148
0.994000   0.199566
0.994500   0.209219
0.995000   0.219179
0.995500   0.230020
0.996000   0.241438
0.996500   0.253123
0.997000   0.264679
0.997500   0.276493
0.998000   0.289332
0.998500   0.302243
0.999000   0.316566
0.999500   0.331138
1.00000   0.345744
1.00050   0.360338
1.00100   0.376088
1.00150   0.391994
1.00200   0.408676
1.00250   0.426262
1.00300   0.443146
1.00350   0.459974
1.00400   0.476812
1.00450   0.493957
1.00500   0.511267
1.00550   0.528702
1.00600   0.545957
1.00650   0.561361
1.00700   0.576200
1.00750   0.590416
1.00800   0.603989
1.00850   0.617059
1.00900   0.628657
1.00950   0.638958
1.01000   0.647675
1.01050   0.655569
1.01100   0.662215
1.01150   0.667684
1.01200   0.672465
1.01250   0.675589
1.01300   0.677814
1.01350   0.679507
1.01400   0.679977
1.01450   0.680131
1.01500   0.679667
1.01550   0.678546
1.01600   0.677480
1.01650   0.675843
1.01700   0.674371
1.01750   0.672599
1.01800   0.670884
1.01850   0.669250
1.01900   0.667785
1.01950   0.666701
1.02000   0.665656
1.02050   0.664799
1.02100   0.664452
1.02150   0.664210
1.02200   0.664372
1.02250   0.665094
1.02300   0.665754
1.02350   0.666968
1.02400   0.668309
1.02450   0.670035
1.02500   0.672141
1.02550   0.674250
1.02600   0.676497
1.02650   0.678883
1.02700   0.681654
1.02750   0.684508
1.02800   0.687415
1.02850   0.690041
1.02900   0.692839
1.02950   0.695209
1.03000   0.697886
1.03050   0.700339
1.03100   0.702833
1.03150   0.705039
1.03200   0.706847
1.03250   0.708359
1.03300   0.709770
1.03350   0.710895
1.03400   0.711686
1.03450   0.712215
1.03500   0.712344
1.03550   0.712425
1.03600   0.711923
1.03650   0.711409
1.03700   0.710189
1.03750   0.708958
1.03800   0.707675
1.03850   0.705873
1.03900   0.704127
1.03950   0.702297
1.04000   0.699975
1.04050   0.697584
1.04100   0.695418
1.04150   0.692835
1.04200   0.690494
1.04250   0.688179
1.04300   0.685673
1.04350   0.683132
1.04400   0.680902
1.04450   0.678670
1.04500   0.676622
1.04550   0.674475
1.04600   0.672784
1.04650   0.670887
1.04700   0.669280
1.04750   0.667838
1.04800   0.666637
1.04850   0.665440
1.04900   0.664700
1.04950   0.663756
1.05000   0.663256
1.05050   0.663044
1.05100   0.662635
1.05150   0.662740
1.05200   0.662804
1.05250   0.663178
1.05300   0.663882
1.05350   0.664379
1.05400   0.665130
1.05450   0.666176
1.05500   0.667162
1.05550   0.668387
1.05600   0.669841
1.05650   0.671230
1.05700   0.672507
1.05750   0.674214
1.05800   0.675788
1.05850   0.677328
1.05900   0.679036
1.05950   0.680816
1.06000   0.682507
1.06050   0.684127
1.06100   0.685553
1.06150   0.687233
1.06200   0.688697
1.06250   0.690310
1.06300   0.691664
1.06350   0.692698
1.06400   0.693988
1.06450   0.694859
1.06500   0.695542
1.06550   0.696374
1.06600   0.697072
1.06650   0.697489
1.06700   0.697653
1.06750   0.697795
1.06800   0.697777
1.06850   0.697511
1.06900   0.697130
1.06950   0.696557
1.07000   0.695894
1.07050   0.695069
1.07100   0.694086
1.07150   0.693155
1.07200   0.692087
1.07250   0.690695
1.07300   0.689638
1.07350   0.688095
1.07400   0.686955
1.07450   0.685280
1.07500   0.683890
1.07550   0.682423
1.07600   0.681376
1.07650   0.680082
1.07700   0.678745
1.07750   0.677671
1.07800   0.676012
1.07850   0.675423
1.07900   0.674798
1.07950   0.673975
1.08000   0.673649
1.08050   0.673028
1.08100   0.672860
1.08150   0.672610
1.08200   0.672752
1.08250   0.672937
1.08300   0.673275
1.08350   0.673817
1.08400   0.674473
1.08450   0.675669
1.08500   0.676465
1.08550   0.677961
1.08600   0.679179
1.08650   0.680703
1.08700   0.682596
1.08750   0.684262
1.08800   0.686379
1.08850   0.688257
1.08900   0.690246
1.08950   0.692250
1.09000   0.694563
1.09050   0.696594
1.09100   0.699102
1.09150   0.701183
1.09200   0.703099
1.09250   0.705120
1.09300   0.707138
1.09350   0.709068
1.09400   0.710929
1.09450   0.712681
1.09500   0.714114
1.09550   0.715214
1.09600   0.716201
1.09650   0.717482
1.09700   0.718119
1.09750   0.718798
1.09800   0.719032
1.09850   0.719237
1.09900   0.719234
1.09950   0.718831
1.10000   0.718381
1.10050   0.717890
1.10100   0.716913
1.10150   0.716059
1.10200   0.714891
1.10250   0.713631
1.10300   0.712233
1.10350   0.710861
1.10400   0.709093
1.10450   0.707679
1.10500   0.706066
1.10550   0.704254
1.10600   0.702539
1.10650   0.700996
1.10700   0.699250
1.10750   0.697798
1.10800   0.696427
1.10850   0.695058
1.10900   0.693718
1.10950   0.692686
1.11000   0.691779
1.11050   0.690873
1.11100   0.690403
1.11150   0.689771
1.11200   0.689704
1.11250   0.689259
1.11300   0.689418
1.11350   0.689699
1.11400   0.690202
1.11450   0.690774
1.11500   0.691693
1.11550   0.692492
1.11600   0.693823
1.11650   0.695340
1.11700   0.696562
1.11750   0.698132
1.11800   0.699850
1.11850   0.701628
1.11900   0.703709
1.11950   0.705894
1.12000   0.707917
1.12050   0.710132
1.12100   0.712130
1.12150   0.714323
1.12200   0.716622
1.12250   0.718769
1.12300   0.720808
1.12350   0.723055
1.12400   0.724768
1.12450   0.726672
1.12500   0.728430
1.12550   0.729818
1.12600   0.731448
1.12650   0.732854
1.12700   0.733852
1.12750   0.734616
1.12800   0.735331
1.12850   0.735799
1.12900   0.736093
1.12950   0.736239
1.13000   0.736175
1.13050   0.735813
1.13100   0.735618
1.13150   0.734885
1.13200   0.734193
1.13250   0.733189
1.13300   0.732356
1.13350   0.731187
1.13400   0.729938
1.13450   0.728760
1.13500   0.727424
1.13550   0.725853
1.13600   0.724702
1.13650   0.723313
1.13700   0.721879
1.13750   0.720648
1.13800   0.719334
1.13850   0.717902
1.13900   0.716739
1.13950   0.715744
1.14000   0.714785
1.14050   0.713815
1.14100   0.713149
1.14150   0.712393
1.14200   0.711789
1.14250   0.711277
1.14300   0.711035
1.14350   0.710814
1.14400   0.710554
1.14450   0.710591
1.14500   0.710937
1.14550   0.710858
1.14600   0.711179
1.14650   0.711543
1.14700   0.711837
1.14750   0.712393
1.14800   0.712631
1.14850   0.713283
1.14900   0.713704
1.14950   0.713937
1.15000   0.714376
1.15050   0.714706
1.15100   0.714783
1.15150   0.714817
1.15200   0.714722
1.15250   0.714280
1.15300   0.713775
1.15350   0.713147
1.15400   0.712084
1.15450   0.711134
1.15500   0.709668
1.15550   0.708050
1.15600   0.706235
1.15650   0.703959
1.15700   0.701337
1.15750   0.698774
1.15800   0.695685
1.15850   0.692458
1.15900   0.689119
1.15950   0.685368
1.16000   0.681315
1.16050   0.676901
1.16100   0.672772
1.16150   0.668304
1.16200   0.663512
1.16250   0.658736
1.16300   0.653823
1.16350   0.648910
1.16400   0.643601
1.16450   0.638917
1.16500   0.633956
1.16550   0.629041
1.16600   0.624157
1.16650   0.619241
1.16700   0.614719
1.16750   0.610238
1.16800   0.605911
1.16850   0.602011
1.16900   0.598056
1.16950   0.594215
1.17000   0.590745
1.17050   0.587722
1.17100   0.584889
1.17150   0.582292
1.17200   0.580186
1.17250   0.578088
1.17300   0.576619
1.17350   0.575352
1.17400   0.574576
1.17450   0.574007
1.17500   0.573770
1.17550   0.574083
1.17600   0.574676
1.17650   0.575739
1.17700   0.577440
1.17750   0.579078
1.17800   0.581315
1.17850   0.583909
1.17900   0.587002
1.17950   0.590593
1.18000   0.594516
1.18050   0.598527
1.18100   0.602933
1.18150   0.607946
1.18200   0.613192
1.18250   0.618946
1.18300   0.624760
1.18350   0.630443
1.18400   0.636635
1.18450   0.642819
1.18500   0.649061
1.18550   0.655741
1.18600   0.661863
1.18650   0.667942
1.18700   0.673358
1.18750   0.678607
1.18800   0.683241
1.18850   0.687510
1.18900   0.690692
1.18950   0.693060
1.19000   0.694047
1.19050   0.694106
1.19100   0.692708
1.19150   0.689688
1.19200   0.685291
1.19250   0.679177
1.19300   0.671492
1.19350   0.662138
1.19400   0.651401
1.19450   0.638605
1.19500   0.623755
1.19550   0.607380
1.19600   0.591089
1.19650   0.573465
1.19700   0.554246
1.19750   0.534569
1.19800   0.513096
1.19850   0.490571
1.19900   0.469597
1.19950   0.450086
1.20000   0.428373
1.20050   0.407868
1.20100   0.386708
1.20150   0.365930
1.20200   0.345623
1.20250   0.327302
1.20300   0.309376
1.20350   0.292442
1.20400   0.276043
1.20450   0.259020
1.20500   0.243600
1.20550   0.229214
1.20600   0.215870
1.20650   0.203395
1.20700   0.191142
1.20750   0.179249
1.20800   0.167887
1.20850   0.158188
1.20900   0.148613
1.20950   0.140260
1.21000   0.131689
1.21050   0.123647
1.21100   0.115717
1.21150   0.108707
1.21200   0.102341
1.21250   0.0963812
1.21300   0.0908575
1.21350   0.0855255
1.21400   0.0799914
1.21450   0.0752017
1.21500   0.0707905
1.21550   0.0667842
1.21600   0.0630012
1.21650   0.0593240
1.21700   0.0555688
1.21750   0.0522924
1.21800   0.0493549
1.21850   0.0462511
1.21900   0.0437959
1.21950   0.0414314
1.22000   0.0389196
1.22050   0.0365814
1.22100   0.0343463
1.22150   0.0325176
1.22200   0.0307400
1.22250   0.0291125
1.22300   0.0273659
1.22350   0.0256139
1.22400   0.0242929
1.22450   0.0228624
1.22500   0.0216663
1.22550   0.0204196
1.22600   0.0193403
1.22650   0.0181905
1.22700   0.0172149
1.22750   0.0162737
1.22800   0.0152668
1.22850   0.0145815
1.22900   0.0137117
1.22950   0.0129698
1.23000   0.0121439
1.23050   0.0115134
1.23100   0.0109956
1.23150   0.0103933
1.23200   0.00980116
1.23250   0.00924459
1.23300   0.00876270
1.23350   0.00832386
1.23400   0.00788330
1.23450   0.00751328
1.23500   0.00708778
1.23550   0.00676568
1.23600   0.00638444
1.23650   0.00599294
1.23700   0.00568907
1.23750   0.00540968
1.23800   0.00529244
1.23850   0.00498955
1.23900   0.00468901
1.23950   0.00449090
1.24000   0.00418044
1.24050   0.00397175
1.24100   0.00381831
1.24150   0.00373337
1.24200   0.00344366
1.24250   0.00330819
1.24300   0.00319104
1.24350   0.00299985
1.24400   0.00300139
1.24450   0.00279043
1.24500   0.00256539
1.24550   0.00246792
1.24600   0.00230407
1.24650   0.00225322
1.24700   0.00230456
1.24750   0.00205137
1.24800   0.00190167
1.24850   0.00186880
1.24900   0.00188808
1.24950   0.00177060
1.25000   0.00174286
1.25050   0.00163034
1.25100   0.00155053
1.25150   0.00150822
1.25200   0.00143362
1.25250   0.00130222
1.25300   0.00127871
1.25350   0.00121338
1.25400   0.00118067
1.25450   0.00115277
1.25500   0.00117189
1.25550   0.00112087
1.25600   0.00106400
1.25650   0.000907878
1.25700   0.00101267
1.25750   0.000918048
1.25800   0.000875579
1.25850   0.000861504
1.25900   0.000838398
1.25950   0.000733934
1.26000   0.000700902
1.26050   0.000753541
1.26100   0.000739385
1.26150   0.000706516
1.26200   0.000582851
1.26250   0.000544857
1.26300   0.000616859
1.26350   0.000602784
1.26400   0.000765013
1.26450   0.000703343
1.26500   0.000469275
1.26550   0.000469519
1.26600   0.000498401
1.26650   0.000436406
1.26700   0.000388893
1.26750   0.000475458
1.26800   0.000451702
1.26850   0.000504747
1.26900   0.000437708
1.26950   0.000490672
1.27000   0.000452353
1.27050   0.000332430
1.27100   0.000346993
1.27150   0.000429003
1.27200   0.000337719
1.27250   0.000419891
1.27300   0.000342844
1.27350   0.000328688
1.27400   0.000357814
1.27450   0.000396541
1.27500   0.000271167
1.27550   0.000251967
1.27600   0.000348946
1.27650   0.000329745
1.27700   0.000315426
1.27750   0.000301026
1.27800   0.000272144
1.27850   0.000228373
1.27900   0.000267506
1.27950   0.000340648
1.28000   8.75416e-05
1.28050   9.25045e-05
1.28100   0.000170609
1.28150   0.000243831
1.28200   0.000161171
1.28250   0.000283371
1.28300   0.000268808
1.28350   0.000234800
1.28400   0.000185985
1.28450   0.000205755
1.28500   0.000161659
1.28550   0.000117726
1.28600   0.000215925
1.28650   0.000171829
1.28700   0.000196562
1.28750   0.000216413
1.28800   0.000275642
1.28850   0.000152466
1.28900   0.000137984
1.28950   0.000197375
1.29000   0.000162961
1.29050   0.000138065
1.29100   9.88504e-05
1.29150   8.41246e-05
1.29200   9.40503e-05
1.29250   0.000128872
1.29300   0.000232929
1.29350   0.000178582
1.29400   0.000109264
1.29450   0.000139204
1.29500   0.000149130
1.29550   3.97842e-05
1.29600   0.000109590
1.29650   5.97984e-05
1.29700   9.48639e-05
1.29750   0.000124885
1.29800   6.99682e-05
1.29850   0.000120085
1.29900   0.000165320
1.29950   0.000245377
1.30000   0.000170690
