# NIC1 TRANSMISSION PROFILE FOR f187n
# BASED ON nic1_f187n_005.tab FROM ftp://ftp.stsci.edu/cdbs/cdbs2/comp/nicmos
1.79980   0.000982126
1.80000   0.00000
1.80020   0.000952813
1.80040   0.00000
1.80060   0.000354623
1.80080   0.000597727
1.80100   0.000195390
1.80120   0.000909259
1.80140   0.00000
1.80160   0.00000
1.80180   0.00000
1.80200   0.00000
1.80220   0.00000
1.80240   0.00000
1.80260   0.00000
1.80280   0.00000
1.80300   0.00000
1.80320   0.00116485
1.80340   0.000351572
1.80360   0.00163506
1.80380   0.000586169
1.80400   0.000699630
1.80420   0.00000
1.80440   0.000781743
1.80460   0.00000
1.80480   0.00000
1.80500   0.00121090
1.80520   0.000735600
1.80540   0.000371268
1.80560   0.000247358
1.80580   0.00000
1.80600   0.000495270
1.80620   0.000737727
1.80640   0.00000
1.80660   0.00000
1.80680   0.000844900
1.80700   0.00000
1.80720   0.00000
1.80740   0.00000
1.80760   0.00000
1.80780   0.00226136
1.80800   0.00000
1.80820   0.00000
1.80840   0.000357490
1.80860   0.00000
1.80880   0.00000
1.80900   0.00000
1.80920   0.000912403
1.80940   0.000196314
1.80960   0.00000
1.80980   0.000243197
1.81000   0.00000
1.81020   0.00000
1.81040   0.00000
1.81060   0.00000
1.81080   0.00000
1.81100   0.00000
1.81120   0.00000
1.81140   0.000616221
1.81160   0.000499616
1.81180   0.00000
1.81200   0.00000
1.81220   0.00000
1.81240   0.00231666
1.81260   0.00000
1.81280   0.00000
1.81300   0.00123050
1.81320   0.00000
1.81340   0.00204775
1.81360   0.000847119
1.81380   7.45310e-05
1.81400   0.00000
1.81420   0.00000
1.81440   0.00000
1.81460   2.03434e-06
1.81480   0.00174380
1.81500   0.000960303
1.81520   0.00000
1.81540   0.000345561
1.81560   0.00000
1.81580   0.000909722
1.81600   0.00000
1.81620   0.00000
1.81640   0.00000
1.81660   1.47952e-06
1.81680   0.00212136
1.81700   0.00000
1.81720   0.00000
1.81740   0.00000
1.81760   0.00000
1.81780   0.000131123
1.81800   0.00000
1.81820   0.00000
1.81840   0.00152927
1.81860   0.00213014
1.81880   0.00000
1.81900   0.00000
1.81920   0.00000
1.81940   0.00000
1.81960   0.00117409
1.81980   1.01717e-06
1.82000   0.00127202
1.82020   0.00000
1.82040   0.00000
1.82060   0.00000
1.82080   0.00149709
1.82100   0.00000
1.82120   0.000280462
1.82140   0.00000
1.82160   0.000141664
1.82180   0.00000
1.82200   0.00000
1.82220   0.00000
1.82240   0.000991003
1.82260   0.00000
1.82280   0.00000
1.82300   0.000375244
1.82320   0.00123309
1.82340   0.00000
1.82360   0.00000
1.82380   0.00000
1.82400   0.000573130
1.82420   0.000200660
1.82440   0.00000
1.82460   0.00100432
1.82480   0.000256420
1.82500   0.000874398
1.82520   0.000143144
1.82540   0.000609564
1.82560   0.00000
1.82580   0.00000
1.82600   0.00000
1.82620   0.00000
1.82640   0.00000
1.82660   0.000540488
1.82680   0.00000
1.82700   0.00000
1.82720   0.00000
1.82740   0.00000
1.82760   0.00000
1.82780   0.000712760
1.82800   0.00150930
1.82820   0.00000
1.82840   0.00000
1.82860   0.00000
1.82880   0.00000
1.82900   0.00307343
1.82920   0.00000
1.82940   0.000280832
1.82960   0.00185708
1.82980   0.000205654
1.83000   0.00000
1.83020   7.26816e-05
1.83040   0.000987489
1.83060   0.000931175
1.83080   0.00000
1.83100   0.00000
1.83120   0.00000
1.83140   0.00378471
1.83160   0.00000
1.83180   0.000418428
1.83200   0.00000
1.83220   0.000860343
1.83240   0.000280740
1.83260   0.00000
1.83280   0.00000
1.83300   0.00426833
1.83320   0.00000
1.83340   0.00000
1.83360   0.000140462
1.83380   0.000134822
1.83400   0.00000
1.83420   0.00222502
1.83440   0.00000
1.83460   0.00000
1.83480   0.000767595
1.83500   0.000151281
1.83520   0.000478441
1.83540   0.00000
1.83560   0.000237556
1.83580   0.000939405
1.83600   0.00000
1.83620   0.00000
1.83640   0.00000
1.83660   0.00000
1.83680   0.00000
1.83700   0.00136652
1.83720   0.00000
1.83740   0.00000
1.83760   0.00000
1.83780   0.00000
1.83800   0.00000
1.83820   0.00000
1.83840   0.000339828
1.83860   1.75693e-06
1.83880   0.00000
1.83900   0.00231998
1.83920   0.00181121
1.83940   0.00000
1.83960   0.00000
1.83980   0.00212820
1.84000   0.000932192
1.84020   0.000297292
1.84040   0.000438864
1.84060   0.00218683
1.84080   0.00000
1.84100   0.00000
1.84120   0.000731069
1.84140   0.00000
1.84160   0.00423865
1.84180   0.00000
1.84200   0.00000
1.84220   0.00279436
1.84240   0.00132214
1.84260   0.000845270
1.84280   0.00000
1.84300   0.000552047
1.84320   0.00000
1.84340   0.000138335
1.84360   0.000350647
1.84380   0.00000
1.84400   0.000268441
1.84420   0.000532998
1.84440   0.00000
1.84460   0.000278335
1.84480   0.000402060
1.84500   0.00000
1.84520   0.00000
1.84540   0.00000
1.84560   0.00000
1.84580   0.000211109
1.84600   0.00000
1.84620   0.000358230
1.84640   0.00262495
1.84660   0.00000
1.84680   0.00242512
1.84700   0.00000
1.84720   0.00000
1.84740   0.00000
1.84760   0.00164329
1.84780   0.00000
1.84800   0.000194372
1.84820   0.000692787
1.84840   0.00000
1.84860   3.51387e-06
1.84880   0.00198487
1.84900   0.00000
1.84920   2.95905e-06
1.84940   0.00302683
1.84960   0.000357120
1.84980   0.00354420
1.85000   0.00104205
1.85020   0.00000
1.85040   0.00116448
1.85060   0.00000
1.85080   0.00000
1.85100   0.00110465
1.85120   0.00000
1.85140   0.00116882
1.85160   0.00154055
1.85180   0.00000
1.85200   0.000525416
1.85220   0.00141368
1.85240   0.00115264
1.85260   0.00201520
1.85280   0.00195325
1.85300   0.000348058
1.85320   0.00000
1.85340   0.00000
1.85360   0.000171810
1.85380   0.00167075
1.85400   0.00212062
1.85420   0.00268959
1.85440   0.00228420
1.85460   0.00260738
1.85480   0.00308795
1.85500   0.00142413
1.85520   0.00441610
1.85540   0.00253350
1.85560   0.00378259
1.85580   0.00537816
1.85600   0.00457432
1.85620   0.00290033
1.85640   0.00366478
1.85660   0.00557447
1.85680   0.00405288
1.85700   0.00542356
1.85720   0.00607150
1.85740   0.00712353
1.85760   0.00619023
1.85780   0.00722544
1.85800   0.00765256
1.85820   0.00955485
1.85840   0.00980378
1.85860   0.0128810
1.85880   0.0143013
1.85900   0.00961061
1.85920   0.0150085
1.85940   0.0146776
1.85960   0.0188338
1.85980   0.0198207
1.86000   0.0204184
1.86020   0.0256334
1.86040   0.0271098
1.86060   0.0289980
1.86080   0.0310065
1.86100   0.0315585
1.86120   0.0421923
1.86140   0.0434208
1.86160   0.0503105
1.86180   0.0589851
1.86200   0.0667905
1.86220   0.0718498
1.86240   0.0827729
1.86260   0.0929257
1.86280   0.102099
1.86300   0.116669
1.86320   0.131449
1.86340   0.150575
1.86360   0.169925
1.86380   0.194170
1.86400   0.223201
1.86420   0.251287
1.86440   0.282199
1.86460   0.314727
1.86480   0.349861
1.86500   0.384471
1.86520   0.426321
1.86540   0.463774
1.86560   0.501713
1.86580   0.544190
1.86600   0.580735
1.86620   0.614136
1.86640   0.649162
1.86660   0.679556
1.86680   0.704798
1.86700   0.730409
1.86720   0.749750
1.86740   0.772460
1.86760   0.785851
1.86780   0.790379
1.86800   0.788819
1.86820   0.788381
1.86840   0.783397
1.86860   0.774825
1.86880   0.764796
1.86900   0.757485
1.86920   0.745171
1.86940   0.732224
1.86960   0.726326
1.86980   0.718620
1.87000   0.711925
1.87020   0.705007
1.87040   0.698676
1.87060   0.696413
1.87080   0.692882
1.87100   0.693003
1.87120   0.694592
1.87140   0.701010
1.87160   0.700052
1.87180   0.701961
1.87200   0.705912
1.87220   0.713771
1.87240   0.716067
1.87260   0.723817
1.87280   0.740847
1.87300   0.746649
1.87320   0.754636
1.87340   0.762547
1.87360   0.772092
1.87380   0.778201
1.87400   0.787563
1.87420   0.793983
1.87440   0.798737
1.87460   0.803932
1.87480   0.807126
1.87500   0.816072
1.87520   0.817638
1.87540   0.820979
1.87560   0.822371
1.87580   0.821587
1.87600   0.821914
1.87620   0.821412
1.87640   0.819252
1.87660   0.816556
1.87680   0.813820
1.87700   0.808945
1.87720   0.804743
1.87740   0.801969
1.87760   0.798067
1.87780   0.796817
1.87800   0.789689
1.87820   0.784461
1.87840   0.779321
1.87860   0.776076
1.87880   0.771728
1.87900   0.769563
1.87920   0.766763
1.87940   0.763151
1.87960   0.759319
1.87980   0.760813
1.88000   0.760556
1.88020   0.757264
1.88040   0.756397
1.88060   0.751248
1.88080   0.750289
1.88100   0.748248
1.88120   0.743144
1.88140   0.736994
1.88160   0.731783
1.88180   0.722957
1.88200   0.711307
1.88220   0.696549
1.88240   0.679121
1.88260   0.661978
1.88280   0.644203
1.88300   0.621016
1.88320   0.595513
1.88340   0.564675
1.88360   0.525565
1.88380   0.491596
1.88400   0.452589
1.88420   0.421357
1.88440   0.388167
1.88460   0.362542
1.88480   0.333322
1.88500   0.300866
1.88520   0.268412
1.88540   0.243162
1.88560   0.219324
1.88580   0.194325
1.88600   0.175566
1.88620   0.153254
1.88640   0.136738
1.88660   0.120126
1.88680   0.108492
1.88700   0.0953615
1.88720   0.0862273
1.88740   0.0773403
1.88760   0.0674002
1.88780   0.0608734
1.88800   0.0541608
1.88820   0.0488617
1.88840   0.0475963
1.88860   0.0424903
1.88880   0.0367833
1.88900   0.0318699
1.88920   0.0289658
1.88940   0.0283320
1.88960   0.0273729
1.88980   0.0247413
1.89000   0.0200485
1.89020   0.0151912
1.89040   0.0168877
1.89060   0.0123406
1.89080   0.0141675
1.89100   0.0126593
1.89120   0.0121438
1.89140   0.0100850
1.89160   0.00706685
1.89180   0.0106076
1.89200   0.00869368
1.89220   0.00582692
1.89240   0.00653875
1.89260   0.00882619
1.89280   0.00597228
1.89300   0.00537058
1.89320   0.00701692
1.89340   0.00448721
1.89360   0.00406758
1.89380   0.00628363
1.89400   0.00372257
1.89420   0.00112536
1.89440   0.00503038
1.89460   0.00219376
1.89480   0.00188482
1.89500   0.00296959
1.89520   0.00421729
1.89540   0.00297532
1.89560   0.00204470
1.89580   0.00298485
1.89600   0.000218969
1.89620   0.00220504
1.89640   1.67371e-05
1.89660   0.00154379
1.89680   0.00234282
1.89700   0.00156164
1.89720   0.00213107
1.89740   0.00124576
1.89760   0.000176988
1.89780   0.00228596
1.89800   0.00000
1.89820   0.00000
1.89840   0.00242087
1.89860   0.000938850
1.89880   0.00000
1.89900   0.00252786
1.89920   0.00000
1.89940   0.000214346
1.89960   0.00000
1.89980   0.00142580
1.90000   0.00118538
1.90020   0.00000
1.90040   0.00108791
1.90060   0.00000
1.90080   0.00119148
1.90100   0.00000
1.90120   0.000323923
1.90140   0.00000
1.90160   0.00000
1.90180   0.00309692
1.90200   0.00000
1.90220   0.00000
1.90240   0.00000
1.90260   0.00000
1.90280   0.000269273
1.90300   0.000913975
1.90320   0.00104861
1.90340   0.000334742
1.90360   0.00285132
1.90380   0.00115930
1.90400   0.00000
1.90420   0.00203952
1.90440   0.00000
1.90460   0.00000
1.90480   0.00000
1.90500   0.00333189
1.90520   0.00000
1.90540   0.00000
1.90560   0.00143939
1.90580   0.00000
1.90600   0.00000
1.90620   0.00170025
1.90640   0.00000
1.90660   0.00442498
1.90680   0.00158411
1.90700   0.00000
1.90720   0.00168962
1.90740   0.00000
1.90760   0.000323646
1.90780   0.000167001
1.90800   0.00000
1.90820   0.00000
1.90840   0.000677252
1.90860   0.00118334
1.90880   0.00168851
1.90900   0.00173049
1.90920   0.00000
1.90940   0.000335574
1.90960   0.00000
1.90980   0.000518943
1.91000   0.00299391
1.91020   0.00000
1.91040   0.00000
1.91060   0.000368864
1.91080   0.000384676
1.91100   0.00000
1.91120   0.000973341
1.91140   0.00000
1.91160   0.00000
1.91180   0.000704345
1.91200   0.00000
1.91220   4.61426e-05
1.91240   0.00000
1.91260   0.00349260
1.91280   0.00000
1.91300   0.00000
1.91320   0.00157634
1.91340   0.00000
1.91360   0.000419352
1.91380   0.00142913
1.91400   0.00241865
1.91420   0.00202084
1.91440   0.00000
1.91460   0.00000
1.91480   0.00000
1.91500   0.00000
1.91520   0.00175194
1.91540   0.000177728
1.91560   0.00150227
1.91580   0.00000
1.91600   1.50726e-05
1.91620   0.00172642
1.91640   0.00000
1.91660   0.00000
1.91680   0.00204849
1.91700   0.00216676
1.91720   0.00000
1.91740   0.00150468
1.91760   0.000666155
1.91780   0.00165096
1.91800   0.000666433
1.91820   0.00000
1.91840   0.00000
1.91860   0.00123254
1.91880   0.00173918
1.91900   0.00153815
1.91920   0.00000
1.91940   0.000482694
1.91960   0.00000
1.91980   0.00000
1.92000   0.00410771
1.92020   0.00000
1.92040   0.00147074
1.92060   2.68164e-06
1.92080   0.00000
1.92100   0.00000
1.92120   0.00000
1.92140   0.00000
1.92160   0.00000
1.92180   0.00000
1.92200   0.000668097
1.92220   0.00117419
1.92240   0.00000
1.92260   0.00000
1.92280   0.00172152
1.92300   0.00207142
1.92320   0.00000
1.92340   0.000180687
1.92360   0.00000
1.92380   0.00179022
1.92400   0.00000
1.92420   0.000372747
1.92440   0.00000
1.92460   0.00128903
1.92480   0.00178227
1.92500   0.000514134
1.92520   3.42140e-06
1.92540   0.000861730
1.92560   0.00000
1.92580   0.00000
1.92600   0.00303164
1.92620   0.000735415
1.92640   0.00100275
1.92660   0.00000
1.92680   0.00000
1.92700   0.000985177
1.92720   0.00106618
1.92740   0.00000
1.92760   0.00204516
1.92780   0.00000
1.92800   0.00000
1.92820   0.00000
1.92840   0.00217656
1.92860   0.00000
1.92880   0.00000
1.92900   0.00387543
1.92920   0.00000
1.92940   0.00000
1.92960   0.00000
1.92980   0.00197489
1.93000   0.000179392
1.93020   0.000180224
1.93040   0.000729867
1.93060   0.000175878
1.93080   0.00000
1.93100   0.000610488
1.93120   0.00000
1.93140   0.00000
1.93160   5.52047e-05
1.93180   6.97225e-05
1.93200   0.00000
1.93220   0.00000
1.93240   0.00142016
1.93260   0.00372609
1.93280   0.000358877
1.93300   0.00000
1.93320   0.00000
1.93340   0.00000
1.93360   0.00000
1.93380   0.00147629
1.93400   0.00000
1.93420   0.00142876
1.93440   0.00000
1.93460   0.00000
1.93480   0.000881148
1.93500   0.000172272
1.93520   0.000712760
1.93540   0.000545019
1.93560   0.000371730
1.93580   0.00000
1.93600   0.00000
1.93620   0.00000
1.93640   0.00138363
1.93660   0.00258168
1.93680   0.00000
1.93700   0.00198820
1.93720   0.00000
1.93740   0.000919154
1.93760   0.00127905
1.93780   0.00000
1.93800   0.00000
1.93820   0.00000
1.93840   0.00207975
1.93860   0.00000
1.93880   0.000967978
1.93900   0.00000
1.93920   0.00115014
1.93940   0.00000
1.93960   0.00000
1.93980   0.000730884
1.94000   0.00000
1.94020   0.00000
1.94040   0.00000
1.94060   0.00000
1.94080   0.00000
1.94100   0.00000
1.94120   0.000184293
1.94140   0.00285853
1.94160   0.00000
1.94180   0.00000
1.94200   0.00000
1.94220   0.00000
1.94240   0.00150357
1.94260   0.00000
1.94280   0.00000
1.94300   0.00000
1.94320   0.00000
1.94340   0.00000
1.94360   0.00000
1.94380   0.00000
1.94400   0.000631849
1.94420   0.00000
1.94440   0.000368679
1.94460   0.000736618
1.94480   0.00000
1.94500   0.000736987
1.94520   0.00181537
1.94540   0.000721545
1.94560   0.000899180
1.94580   0.00000
1.94600   0.00000
1.94620   0.000901030
1.94640   0.00000
1.94660   0.00000
1.94680   0.00183600
1.94700   0.000358877
1.94720   0.00000
1.94740   0.00000
1.94760   0.000917304
1.94780   0.00000
1.94800   0.00000
1.94820   0.00000
1.94840   0.000343527
1.94860   0.00000
1.94880   0.00000
1.94900   0.00135145
1.94920   0.00505433
1.94940   0.00000
1.94960   0.00000
1.94980   0.00237334
