# NIC1 TRANSMISSION PROFILE FOR f090m
# BASED ON nic1_f090m_003.tab FROM ftp://ftp.stsci.edu/cdbs/cdbs2/comp/nicmos
0.760500   0.000128945
0.761000   0.000135024
0.761500   0.000162286
0.762000   0.000217917
0.762500   0.000262311
0.763000   0.000317020
0.763500   0.000403137
0.764000   0.000486491
0.764500   0.000607055
0.765000   0.000667382
0.765500   0.000767499
0.766000   0.000857116
0.766500   0.000945075
0.767000   0.00103736
0.767500   0.00108369
0.768000   0.00118381
0.768500   0.00122323
0.769000   0.00127711
0.769500   0.00132823
0.770000   0.00135862
0.770500   0.00139040
0.771000   0.00143857
0.771500   0.00147200
0.772000   0.00149309
0.772500   0.00152045
0.773000   0.00155913
0.773500   0.00160269
0.774000   0.00162793
0.774500   0.00167205
0.775000   0.00172639
0.775500   0.00181048
0.776000   0.00191824
0.776500   0.00200823
0.777000   0.00214878
0.777500   0.00230812
0.778000   0.00246819
0.778500   0.00268371
0.779000   0.00292116
0.779500   0.00317905
0.780000   0.00349763
0.780500   0.00388916
0.781000   0.00433172
0.781500   0.00485984
0.782000   0.00549904
0.782500   0.00627428
0.783000   0.00716575
0.783500   0.00820781
0.784000   0.00954709
0.784500   0.0110918
0.785000   0.0130068
0.785500   0.0153287
0.786000   0.0179839
0.786500   0.0212144
0.787000   0.0250920
0.787500   0.0293835
0.788000   0.0345052
0.788500   0.0399747
0.789000   0.0461224
0.789500   0.0526906
0.790000   0.0592487
0.790500   0.0660431
0.791000   0.0726529
0.791500   0.0789888
0.792000   0.0852177
0.792500   0.0911083
0.793000   0.0966447
0.793500   0.102320
0.794000   0.107795
0.794500   0.113461
0.795000   0.119393
0.795500   0.125770
0.796000   0.132378
0.796500   0.139567
0.797000   0.147534
0.797500   0.156057
0.798000   0.165358
0.798500   0.175368
0.799000   0.186000
0.799500   0.197702
0.800000   0.210533
0.800500   0.223304
0.801000   0.237303
0.801500   0.252118
0.802000   0.266918
0.802500   0.282641
0.803000   0.298444
0.803500   0.314356
0.804000   0.330615
0.804500   0.346016
0.805000   0.360804
0.805500   0.375160
0.806000   0.387254
0.806500   0.398005
0.807000   0.406788
0.807500   0.412991
0.808000   0.416934
0.808500   0.418691
0.809000   0.417976
0.809500   0.415349
0.810000   0.410898
0.810500   0.405440
0.811000   0.398321
0.811500   0.390910
0.812000   0.382911
0.812500   0.374857
0.813000   0.367438
0.813500   0.360185
0.814000   0.353741
0.814500   0.348894
0.815000   0.344921
0.815500   0.342497
0.816000   0.341669
0.816500   0.342115
0.817000   0.344282
0.817500   0.348648
0.818000   0.354104
0.818500   0.361544
0.819000   0.370576
0.819500   0.380935
0.820000   0.393472
0.820500   0.406862
0.821000   0.421325
0.821500   0.437829
0.822000   0.454432
0.822500   0.472460
0.823000   0.491722
0.823500   0.510591
0.824000   0.530324
0.824500   0.549206
0.825000   0.567584
0.825500   0.585881
0.826000   0.602655
0.826500   0.618435
0.827000   0.633066
0.827500   0.645758
0.828000   0.657145
0.828500   0.666621
0.829000   0.674641
0.829500   0.680870
0.830000   0.685863
0.830500   0.689633
0.831000   0.691399
0.831500   0.692160
0.832000   0.692069
0.832500   0.690641
0.833000   0.688282
0.833500   0.685928
0.834000   0.682990
0.834500   0.679229
0.835000   0.675885
0.835500   0.671467
0.836000   0.666345
0.836500   0.660217
0.837000   0.653007
0.837500   0.644238
0.838000   0.634438
0.838500   0.623663
0.839000   0.611226
0.839500   0.598292
0.840000   0.584617
0.840500   0.571784
0.841000   0.559771
0.841500   0.548257
0.842000   0.538375
0.842500   0.529289
0.843000   0.520472
0.843500   0.512986
0.844000   0.506253
0.844500   0.498286
0.845000   0.490286
0.845500   0.481156
0.846000   0.471408
0.846500   0.460092
0.847000   0.449230
0.847500   0.438079
0.848000   0.426985
0.848500   0.417234
0.849000   0.409938
0.849500   0.403788
0.850000   0.400222
0.850500   0.399755
0.851000   0.402737
0.851500   0.408085
0.852000   0.416549
0.852500   0.427633
0.853000   0.440100
0.853500   0.454615
0.854000   0.468747
0.854500   0.482304
0.855000   0.494743
0.855500   0.504774
0.856000   0.511122
0.856500   0.514893
0.857000   0.514364
0.857500   0.511930
0.858000   0.508025
0.858500   0.502976
0.859000   0.498741
0.859500   0.496013
0.860000   0.494680
0.860500   0.495835
0.861000   0.500747
0.861500   0.509257
0.862000   0.517512
0.862500   0.530611
0.863000   0.546581
0.863500   0.562327
0.864000   0.579685
0.864500   0.595849
0.865000   0.612209
0.865500   0.626739
0.866000   0.640272
0.866500   0.650997
0.867000   0.659645
0.867500   0.667116
0.868000   0.670356
0.868500   0.675458
0.869000   0.678430
0.869500   0.683767
0.870000   0.688256
0.870500   0.694959
0.871000   0.700511
0.871500   0.707522
0.872000   0.715896
0.872500   0.722770
0.873000   0.728752
0.873500   0.727924
0.874000   0.726064
0.874500   0.717178
0.875000   0.700670
0.875500   0.685787
0.876000   0.666905
0.876500   0.644869
0.877000   0.619811
0.877500   0.595448
0.878000   0.572932
0.878500   0.549589
0.879000   0.529428
0.879500   0.510902
0.880000   0.491102
0.880500   0.475603
0.881000   0.462076
0.881500   0.450716
0.882000   0.439216
0.882500   0.426852
0.883000   0.414751
0.883500   0.400983
0.884000   0.388435
0.884500   0.374534
0.885000   0.360101
0.885500   0.343983
0.886000   0.327972
0.886500   0.312939
0.887000   0.298752
0.887500   0.285197
0.888000   0.274130
0.888500   0.264951
0.889000   0.256150
0.889500   0.249830
0.890000   0.246342
0.890500   0.243271
0.891000   0.244136
0.891500   0.244122
0.892000   0.246487
0.892500   0.250389
0.893000   0.255692
0.893500   0.259778
0.894000   0.264708
0.894500   0.268985
0.895000   0.272346
0.895500   0.275330
0.896000   0.277241
0.896500   0.277543
0.897000   0.277199
0.897500   0.276008
0.898000   0.273526
0.898500   0.272396
0.899000   0.271492
0.899500   0.271106
0.900000   0.272601
0.900500   0.275065
0.901000   0.280234
0.901500   0.287298
0.902000   0.296942
0.902500   0.309059
0.903000   0.324811
0.903500   0.343093
0.904000   0.364126
0.904500   0.390489
0.905000   0.419026
0.905500   0.448369
0.906000   0.479066
0.906500   0.510354
0.907000   0.541347
0.907500   0.571093
0.908000   0.598929
0.908500   0.624438
0.909000   0.642945
0.909500   0.658878
0.910000   0.671432
0.910500   0.680884
0.911000   0.688453
0.911500   0.694722
0.912000   0.698445
0.912500   0.702836
0.913000   0.707118
0.913500   0.710849
0.914000   0.715412
0.914500   0.720141
0.915000   0.724182
0.915500   0.727752
0.916000   0.729752
0.916500   0.732274
0.917000   0.733467
0.917500   0.733502
0.918000   0.732410
0.918500   0.730785
0.919000   0.728982
0.919500   0.726549
0.920000   0.724437
0.920500   0.721832
0.921000   0.719387
0.921500   0.717256
0.922000   0.714640
0.922500   0.711919
0.923000   0.708231
0.923500   0.703778
0.924000   0.698001
0.924500   0.690523
0.925000   0.682224
0.925500   0.672649
0.926000   0.661341
0.926500   0.649446
0.927000   0.635053
0.927500   0.620751
0.928000   0.607164
0.928500   0.593342
0.929000   0.580337
0.929500   0.567608
0.930000   0.555997
0.930500   0.544735
0.931000   0.535388
0.931500   0.526899
0.932000   0.519323
0.932500   0.512430
0.933000   0.506352
0.933500   0.500175
0.934000   0.494539
0.934500   0.489543
0.935000   0.484478
0.935500   0.479598
0.936000   0.474730
0.936500   0.469987
0.937000   0.465251
0.937500   0.460743
0.938000   0.456900
0.938500   0.453190
0.939000   0.449972
0.939500   0.447382
0.940000   0.445484
0.940500   0.443917
0.941000   0.443377
0.941500   0.443457
0.942000   0.444403
0.942500   0.445919
0.943000   0.448288
0.943500   0.451249
0.944000   0.454797
0.944500   0.459072
0.945000   0.463789
0.945500   0.469479
0.946000   0.475682
0.946500   0.483180
0.947000   0.491134
0.947500   0.499603
0.948000   0.508899
0.948500   0.519139
0.949000   0.530517
0.949500   0.542559
0.950000   0.555181
0.950500   0.567337
0.951000   0.580005
0.951500   0.592659
0.952000   0.604727
0.952500   0.616910
0.953000   0.627051
0.953500   0.635398
0.954000   0.642139
0.954500   0.647218
0.955000   0.649964
0.955500   0.651039
0.956000   0.649988
0.956500   0.647511
0.957000   0.643842
0.957500   0.639157
0.958000   0.633756
0.958500   0.627625
0.959000   0.621134
0.959500   0.614349
0.960000   0.607902
0.960500   0.601075
0.961000   0.594548
0.961500   0.587307
0.962000   0.579078
0.962500   0.570517
0.963000   0.561350
0.963500   0.552353
0.964000   0.542115
0.964500   0.531072
0.965000   0.518974
0.965500   0.506245
0.966000   0.493683
0.966500   0.481066
0.967000   0.468667
0.967500   0.455836
0.968000   0.443023
0.968500   0.430414
0.969000   0.418701
0.969500   0.407845
0.970000   0.396823
0.970500   0.386486
0.971000   0.376565
0.971500   0.366255
0.972000   0.356947
0.972500   0.348109
0.973000   0.339791
0.973500   0.331275
0.974000   0.323235
0.974500   0.315315
0.975000   0.307516
0.975500   0.300641
0.976000   0.294384
0.976500   0.288361
0.977000   0.282664
0.977500   0.277540
0.978000   0.273018
0.978500   0.269190
0.979000   0.266255
0.979500   0.263980
0.980000   0.262899
0.980500   0.262660
0.981000   0.263256
0.981500   0.264973
0.982000   0.267773
0.982500   0.271503
0.983000   0.276347
0.983500   0.282757
0.984000   0.291101
0.984500   0.300874
0.985000   0.311219
0.985500   0.324084
0.986000   0.339126
0.986500   0.356084
0.987000   0.376855
0.987500   0.399831
0.988000   0.424404
0.988500   0.450850
0.989000   0.479291
0.989500   0.508254
0.990000   0.536392
0.990500   0.561167
0.991000   0.579089
0.991500   0.587454
0.992000   0.585639
0.992500   0.571907
0.993000   0.545621
0.993500   0.507403
0.994000   0.461747
0.994500   0.414983
0.995000   0.365971
0.995500   0.317776
0.996000   0.272904
0.996500   0.231946
0.997000   0.195657
0.997500   0.166832
0.998000   0.142584
0.998500   0.121977
0.999000   0.104611
0.999500   0.0902772
1.00000   0.0772257
1.00050   0.0673964
1.00100   0.0591555
1.00150   0.0519169
1.00200   0.0458354
1.00250   0.0406979
1.00300   0.0359498
1.00350   0.0320371
1.00400   0.0289300
1.00450   0.0259352
1.00500   0.0234869
1.00550   0.0210365
1.00600   0.0191131
1.00650   0.0172163
1.00700   0.0158821
1.00750   0.0145569
1.00800   0.0133753
1.00850   0.0121925
1.00900   0.0114313
1.00950   0.0102000
1.01000   0.00958301
1.01050   0.00868481
1.01100   0.00805575
1.01150   0.00777059
1.01200   0.00698302
1.01250   0.00659498
1.01300   0.00606889
1.01350   0.00562265
1.01400   0.00553395
1.01450   0.00507012
1.01500   0.00467214
1.01550   0.00430888
1.01600   0.00398744
1.01650   0.00379826
1.01700   0.00360162
1.01750   0.00349376
1.01800   0.00304015
1.01850   0.00304375
1.01900   0.00275721
1.01950   0.00252087
1.02000   0.00248293
1.02050   0.00235868
1.02100   0.00218810
1.02150   0.00211608
1.02200   0.00190912
1.02250   0.00168955
1.02300   0.00168163
1.02350   0.00153896
1.02400   0.00151427
1.02450   0.00146832
1.02500   0.00128190
1.02550   0.00132675
1.02600   0.00128107
1.02650   0.000894694
1.02700   0.00116161
1.02750   0.000941851
1.02800   0.000854076
1.02850   0.000943233
1.02900   0.000967732
1.02950   0.000687093
1.03000   0.000861629
1.03050   0.000763907
1.03100   0.000651817
1.03150   0.000662961
1.03200   0.000531622
1.03250   0.000653659
1.03300   0.000680737
1.03350   0.000621239
1.03400   0.000475439
1.03450   0.000473873
1.03500   0.000465676
1.03550   0.000428834
1.03600   0.000463281
1.03650   0.000376796
1.03700   0.000489070
1.03750   0.000289942
1.03800   0.000408940
1.03850   0.000422940
1.03900   0.000371822
1.03950   0.000279995
1.04000   0.000343546
1.04050   0.000313244
1.04100   9.72614e-05
1.04150   0.000223720
1.04200   0.000234956
1.04250   0.000310297
1.04300   0.000185773
1.04350   0.000240114
1.04400   0.000130142
1.04450   0.000204838
1.04500   0.000218009
1.04550   0.000193417
1.04600   0.000108498
1.04650   0.000148839
1.04700   0.000229522
1.04750   0.000208615
1.04800   8.05906e-05
1.04850   0.000100577
1.04900   0.000111169
1.04950   0.000144511
1.05000   8.64852e-05
1.05050   0.000112919
1.05100   7.94854e-05
1.05150   6.62225e-05
1.05200   0.000204562
1.05250   0.000158050
1.05300   0.000131340
1.05350   0.00000
1.05400   0.000150497
1.05450   0.000266732
1.05500   6.51172e-05
1.05550   7.15645e-05
1.05600   0.000129774
1.05650   0.000135945
1.05700   0.000116235
1.05750   7.73670e-05
1.05800   1.93417e-05
1.05850   0.000199404
1.05900   0.00000
1.05950   0.00000
1.06000   0.000153997
1.06050   6.99987e-05
1.06100   8.26169e-05
1.06150   0.000133182
1.06200   2.54206e-05
1.06250   0.000127840
1.06300   0.000146629
1.06350   7.55249e-05
1.06400   7.54328e-05
1.06450   0.000137879
1.06500   1.87891e-05
1.06550   0.000112458
1.06600   9.98403e-05
1.06650   0.00000
1.06700   0.000105643
1.06750   0.000136405
1.06800   0.000157681
1.06850   0.00000
1.06900   0.000104814
1.06950   4.02493e-05
1.07000   0.00000
1.07050   0.00000
1.07100   0.00000
1.07150   3.66572e-05
1.07200   4.27361e-05
1.07250   0.000103524
1.07300   0.00000
1.07350   3.03942e-05
1.07400   3.48151e-05
1.07450   8.33537e-05
1.07500   9.06299e-05
1.07550   8.43669e-05
1.07600   0.000101314
1.07650   3.61046e-05
1.07700   3.60125e-05
1.07750   0.000119182
1.07800   9.56956e-05
1.07850   4.73412e-05
1.07900   1.79602e-05
1.07950   0.000142853
1.08000   3.56441e-05
1.08050   0.00000
1.08100   0.00000
1.08150   1.17893e-05
1.08200   2.36706e-05
1.08250   0.000111998
1.08300   2.35785e-05
1.08350   0.00000
1.08400   0.00000
1.08450   1.75918e-05
1.08500   0.000134748
1.08550   1.88812e-05
1.08600   0.00000
1.08650   0.00000
1.08700   4.66044e-05
1.08750   2.32101e-05
1.08800   1.74076e-05
1.08850   0.000135392
1.08900   5.79331e-05
1.08950   7.74591e-05
1.09000   0.000127011
